VM12.5/12.5/120/3
 9     9 parameters
  0.00  [ 1] Max Gain dBi
  10    [ 2] Antenna Type
   4    [ 3] Ground Dielectric Constant (1-80)
0.01000 [ 4] Ground Conductivity (.00003-5.0 mhos/m)
10.000  [ 5] Operating Freq
 12.50  [ 6] Height above ground (meters)
  12.5  [ 7] Earth System Radius (meters, 0=none)
   3    [ 8] Earth System Wire diameter (mm)
 120    [ 9] Number of Radial wires
  2 MHz =   2.21  -12.03 -7.00 -4.41 -2.79 -1.66 -0.84 -0.22  0.26  0.65  0.96
                    1.22  1.43  1.60  1.74  1.86  1.95  2.03  2.09  2.14  2.17
                    2.20  2.21  2.21  2.21  2.19  2.17  2.14  2.11  2.06  2.02
                    1.96  1.90  1.83  1.76  1.68  1.60  1.51  1.41  1.31  1.20
                    1.09  0.97  0.85  0.72  0.58  0.44  0.29  0.13 -0.03 -0.20
                   -0.37 -0.55 -0.74 -0.94 -1.15 -1.36 -1.59 -1.82 -2.06 -2.31
                   -2.58 -2.85 -3.14 -3.44 -3.76 -4.09 -4.43 -4.79 -5.18 -5.58
                   -6.01 -6.46 -6.94 -7.45 -7.99 -8.58 -9.21 -9.89-10.64-11.45
                  -12.36-13.38-14.53-15.86-17.44-19.37-21.87-25.39-27.79-27.79
  3 MHz =   1.71  -13.70 -8.51 -5.78 -4.03 -2.81 -1.90 -1.20 -0.65 -0.21  0.15
                    0.45  0.70  0.91  1.08  1.22  1.34  1.44  1.52  1.58  1.63
                    1.67  1.69  1.71  1.71  1.70  1.69  1.67  1.64  1.60  1.55
                    1.50  1.44  1.38  1.31  1.23  1.15  1.06  0.96  0.86  0.76
                    0.64  0.52  0.40  0.27  0.13 -0.01 -0.16 -0.32 -0.48 -0.65
                   -0.83 -1.01 -1.21 -1.41 -1.62 -1.83 -2.06 -2.29 -2.54 -2.79
                   -3.06 -3.34 -3.63 -3.93 -4.25 -4.58 -4.93 -5.29 -5.68 -6.08
                   -6.51 -6.96 -7.45 -7.96 -8.51 -9.09 -9.72-10.41-11.15-11.97
                  -12.88-13.90-15.05-16.38-17.96-19.90-22.39-25.91-28.29-28.29
  4 MHz =   1.26  -14.92 -9.63 -6.81 -4.99 -3.69 -2.73 -1.98 -1.38 -0.90 -0.50
                   -0.17  0.10  0.33  0.52  0.69  0.82  0.93  1.03  1.10  1.16
                    1.20  1.23  1.25  1.26  1.26  1.25  1.23  1.20  1.17  1.12
                    1.07  1.01  0.95  0.87  0.80  0.71  0.62  0.52  0.42  0.31
                    0.19  0.07 -0.06 -0.20 -0.34 -0.48 -0.64 -0.80 -0.97 -1.14
                   -1.33 -1.52 -1.71 -1.92 -2.13 -2.35 -2.58 -2.82 -3.07 -3.33
                   -3.60 -3.89 -4.18 -4.49 -4.81 -5.15 -5.50 -5.87 -6.26 -6.67
                   -7.10 -7.56 -8.04 -8.56 -9.11 -9.70-10.33-11.02-11.77-12.59
                  -13.50-14.52-15.67-17.01-18.59-20.52-23.02-26.54-28.74-28.74
  5 MHz =   0.87  -15.84-10.49 -7.61 -5.73 -4.39 -3.38 -2.59 -1.96 -1.45 -1.03
                   -0.68 -0.39 -0.14  0.07  0.24  0.39  0.51  0.61  0.69  0.76
                    0.80  0.84  0.86  0.87  0.87  0.86  0.84  0.81  0.77  0.72
                    0.67  0.61  0.54  0.46  0.38  0.29  0.19  0.09 -0.02 -0.14
                   -0.26 -0.39 -0.53 -0.67 -0.82 -0.97 -1.14 -1.31 -1.48 -1.66
                   -1.85 -2.05 -2.26 -2.47 -2.69 -2.92 -3.16 -3.41 -3.66 -3.93
                   -4.21 -4.50 -4.80 -5.12 -5.45 -5.79 -6.15 -6.52 -6.92 -7.33
                   -7.77 -8.24 -8.73 -9.25 -9.80-10.39-11.03-11.73-12.48-13.30
                  -14.21-15.23-16.39-17.73-19.31-21.25-23.75-27.27-29.13-29.13
  6 MHz =   0.55  -16.54-11.14 -8.22 -6.30 -4.92 -3.88 -3.06 -2.41 -1.88 -1.44
                   -1.07 -0.76 -0.50 -0.28 -0.10  0.05  0.18  0.28  0.37  0.43
                    0.48  0.52  0.54  0.55  0.54  0.53  0.51  0.47  0.43  0.38
                    0.31  0.25  0.17  0.08 -0.01 -0.11 -0.21 -0.32 -0.44 -0.57
                   -0.70 -0.84 -0.99 -1.14 -1.30 -1.47 -1.64 -1.82 -2.01 -2.20
                   -2.40 -2.61 -2.83 -3.05 -3.28 -3.52 -3.77 -4.03 -4.30 -4.58
                   -4.87 -5.17 -5.48 -5.80 -6.14 -6.49 -6.86 -7.25 -7.65 -8.08
                   -8.52 -8.99 -9.49-10.02-10.58-11.18-11.82-12.52-13.28-14.11
                  -15.02-16.05-17.21-18.55-20.13-22.07-24.57-28.09-29.45-29.45
  7 MHz =   0.30  -17.04-11.60 -8.65 -6.70 -5.30 -4.23 -3.39 -2.72 -2.17 -1.71
                   -1.34 -1.02 -0.75 -0.53 -0.34 -0.18 -0.05  0.05  0.14  0.20
                    0.25  0.28  0.30  0.30  0.29  0.27  0.24  0.20  0.15  0.09
                    0.02 -0.06 -0.15 -0.25 -0.35 -0.46 -0.58 -0.70 -0.83 -0.97
                   -1.12 -1.27 -1.43 -1.60 -1.77 -1.95 -2.14 -2.33 -2.54 -2.74
                   -2.96 -3.18 -3.41 -3.65 -3.90 -4.15 -4.42 -4.69 -4.97 -5.26
                   -5.57 -5.88 -6.20 -6.54 -6.89 -7.26 -7.64 -8.03 -8.45 -8.88
                   -9.34 -9.82-10.32-10.86-11.43-12.04-12.69-13.39-14.16-14.99
                  -15.91-16.94-18.11-19.45-21.04-22.98-25.48-29.01-29.70-29.70
  8 MHz =   0.13  -17.38-11.91 -8.93 -6.95 -5.53 -4.44 -3.59 -2.90 -2.34 -1.87
                   -1.49 -1.16 -0.89 -0.66 -0.47 -0.32 -0.19 -0.08  0.00  0.06
                    0.10  0.12  0.13  0.13  0.11  0.08  0.04 -0.01 -0.08 -0.15
                   -0.23 -0.32 -0.43 -0.54 -0.65 -0.78 -0.91 -1.05 -1.20 -1.36
                   -1.52 -1.69 -1.87 -2.05 -2.24 -2.44 -2.65 -2.86 -3.08 -3.30
                   -3.54 -3.78 -4.03 -4.28 -4.55 -4.82 -5.10 -5.39 -5.69 -6.00
                   -6.32 -6.65 -6.99 -7.34 -7.70 -8.08 -8.48 -8.89 -9.31 -9.76
                  -10.23-10.72-11.24-11.79-12.37-12.98-13.64-14.36-15.13-15.97
                  -16.90-17.93-19.10-20.45-22.04-23.99-26.49-29.87-29.87-29.87
  9 MHz =   0.03  -17.57-12.08 -9.07 -7.08 -5.64 -4.54 -3.67 -2.97 -2.40 -1.93
                   -1.54 -1.21 -0.94 -0.71 -0.53 -0.37 -0.25 -0.15 -0.08 -0.02
                    0.01  0.03  0.03  0.01 -0.02 -0.06 -0.12 -0.19 -0.27 -0.36
                   -0.46 -0.57 -0.69 -0.81 -0.95 -1.10 -1.25 -1.41 -1.58 -1.76
                   -1.94 -2.13 -2.33 -2.54 -2.75 -2.97 -3.20 -3.44 -3.68 -3.93
                   -4.18 -4.45 -4.72 -5.00 -5.28 -5.58 -5.88 -6.19 -6.51 -6.84
                   -7.18 -7.52 -7.88 -8.25 -8.64 -9.03 -9.45 -9.87-10.31-10.78
                  -11.26-11.76-12.30-12.85-13.45-14.08-14.75-15.47-16.25-17.10
                  -18.03-19.07-20.25-21.60-23.20-25.15-27.65-29.97-29.97-29.97
 10 MHz = -30.00  -30.00-30.00-30.00-30.00-30.00-30.00-30.00-30.00-30.00-30.00
                  -30.00-30.00-30.00-30.00-30.00-30.00-30.00-30.00-30.00-30.00
                  -30.00-30.00-30.00-30.00-30.00-30.00-30.00-30.00-30.00-30.00
                  -30.00-30.00-30.00-30.00-30.00-30.00-30.00-30.00-30.00-30.00
                  -30.00-30.00-30.00-30.00-30.00-30.00-30.00-30.00-30.00-30.00
                  -30.00-30.00-30.00-30.00-30.00-30.00-30.00-30.00-30.00-30.00
                  -30.00-30.00-30.00-30.00-30.00-30.00-30.00-30.00-30.00-30.00
                  -30.00-30.00-30.00-30.00-30.00-30.00-30.00-30.00-30.00-30.00
                  -30.00-30.00-30.00-30.00-30.00-30.00-30.00-30.00-30.00-30.00
 11 MHz = -30.00  -30.00-30.00-30.00-30.00-30.00-30.00-30.00-30.00-30.00-30.00
                  -30.00-30.00-30.00-30.00-30.00-30.00-30.00-30.00-30.00-30.00
                  -30.00-30.00-30.00-30.00-30.00-30.00-30.00-30.00-30.00-30.00
                  -30.00-30.00-30.00-30.00-30.00-30.00-30.00-30.00-30.00-30.00
                  -30.00-30.00-30.00-30.00-30.00-30.00-30.00-30.00-30.00-30.00
                  -30.00-30.00-30.00-30.00-30.00-30.00-30.00-30.00-30.00-30.00
                  -30.00-30.00-30.00-30.00-30.00-30.00-30.00-30.00-30.00-30.00
                  -30.00-30.00-30.00-30.00-30.00-30.00-30.00-30.00-30.00-30.00
                  -30.00-30.00-30.00-30.00-30.00-30.00-30.00-30.00-30.00-30.00
 12 MHz = -30.00  -30.00-30.00-30.00-30.00-30.00-30.00-30.00-30.00-30.00-30.00
                  -30.00-30.00-30.00-30.00-30.00-30.00-30.00-30.00-30.00-30.00
                  -30.00-30.00-30.00-30.00-30.00-30.00-30.00-30.00-30.00-30.00
                  -30.00-30.00-30.00-30.00-30.00-30.00-30.00-30.00-30.00-30.00
                  -30.00-30.00-30.00-30.00-30.00-30.00-30.00-30.00-30.00-30.00
                  -30.00-30.00-30.00-30.00-30.00-30.00-30.00-30.00-30.00-30.00
                  -30.00-30.00-30.00-30.00-30.00-30.00-30.00-30.00-30.00-30.00
                  -30.00-30.00-30.00-30.00-30.00-30.00-30.00-30.00-30.00-30.00
                  -30.00-30.00-30.00-30.00-30.00-30.00-30.00-30.00-30.00-30.00
 13 MHz = -30.00  -30.00-30.00-30.00-30.00-30.00-30.00-30.00-30.00-30.00-30.00
                  -30.00-30.00-30.00-30.00-30.00-30.00-30.00-30.00-30.00-30.00
                  -30.00-30.00-30.00-30.00-30.00-30.00-30.00-30.00-30.00-30.00
                  -30.00-30.00-30.00-30.00-30.00-30.00-30.00-30.00-30.00-30.00
                  -30.00-30.00-30.00-30.00-30.00-30.00-30.00-30.00-30.00-30.00
                  -30.00-30.00-30.00-30.00-30.00-30.00-30.00-30.00-30.00-30.00
                  -30.00-30.00-30.00-30.00-30.00-30.00-30.00-30.00-30.00-30.00
                  -30.00-30.00-30.00-30.00-30.00-30.00-30.00-30.00-30.00-30.00
                  -30.00-30.00-30.00-30.00-30.00-30.00-30.00-30.00-30.00-30.00
 14 MHz = -30.00  -30.00-30.00-30.00-30.00-30.00-30.00-30.00-30.00-30.00-30.00
                  -30.00-30.00-30.00-30.00-30.00-30.00-30.00-30.00-30.00-30.00
                  -30.00-30.00-30.00-30.00-30.00-30.00-30.00-30.00-30.00-30.00
                  -30.00-30.00-30.00-30.00-30.00-30.00-30.00-30.00-30.00-30.00
                  -30.00-30.00-30.00-30.00-30.00-30.00-30.00-30.00-30.00-30.00
                  -30.00-30.00-30.00-30.00-30.00-30.00-30.00-30.00-30.00-30.00
                  -30.00-30.00-30.00-30.00-30.00-30.00-30.00-30.00-30.00-30.00
                  -30.00-30.00-30.00-30.00-30.00-30.00-30.00-30.00-30.00-30.00
                  -30.00-30.00-30.00-30.00-30.00-30.00-30.00-30.00-30.00-30.00
 15 MHz = -30.00  -30.00-30.00-30.00-30.00-30.00-30.00-30.00-30.00-30.00-30.00
                  -30.00-30.00-30.00-30.00-30.00-30.00-30.00-30.00-30.00-30.00
                  -30.00-30.00-30.00-30.00-30.00-30.00-30.00-30.00-30.00-30.00
                  -30.00-30.00-30.00-30.00-30.00-30.00-30.00-30.00-30.00-30.00
                  -30.00-30.00-30.00-30.00-30.00-30.00-30.00-30.00-30.00-30.00
                  -30.00-30.00-30.00-30.00-30.00-30.00-30.00-30.00-30.00-30.00
                  -30.00-30.00-30.00-30.00-30.00-30.00-30.00-30.00-30.00-30.00
                  -30.00-30.00-30.00-30.00-30.00-30.00-30.00-30.00-30.00-30.00
                  -30.00-30.00-30.00-30.00-30.00-30.00-30.00-30.00-30.00-30.00
 16 MHz = -30.00  -30.00-30.00-30.00-30.00-30.00-30.00-30.00-30.00-30.00-30.00
                  -30.00-30.00-30.00-30.00-30.00-30.00-30.00-30.00-30.00-30.00
                  -30.00-30.00-30.00-30.00-30.00-30.00-30.00-30.00-30.00-30.00
                  -30.00-30.00-30.00-30.00-30.00-30.00-30.00-30.00-30.00-30.00
                  -30.00-30.00-30.00-30.00-30.00-30.00-30.00-30.00-30.00-30.00
                  -30.00-30.00-30.00-30.00-30.00-30.00-30.00-30.00-30.00-30.00
                  -30.00-30.00-30.00-30.00-30.00-30.00-30.00-30.00-30.00-30.00
                  -30.00-30.00-30.00-30.00-30.00-30.00-30.00-30.00-30.00-30.00
                  -30.00-30.00-30.00-30.00-30.00-30.00-30.00-30.00-30.00-30.00
 17 MHz = -30.00  -30.00-30.00-30.00-30.00-30.00-30.00-30.00-30.00-30.00-30.00
                  -30.00-30.00-30.00-30.00-30.00-30.00-30.00-30.00-30.00-30.00
                  -30.00-30.00-30.00-30.00-30.00-30.00-30.00-30.00-30.00-30.00
                  -30.00-30.00-30.00-30.00-30.00-30.00-30.00-30.00-30.00-30.00
                  -30.00-30.00-30.00-30.00-30.00-30.00-30.00-30.00-30.00-30.00
                  -30.00-30.00-30.00-30.00-30.00-30.00-30.00-30.00-30.00-30.00
                  -30.00-30.00-30.00-30.00-30.00-30.00-30.00-30.00-30.00-30.00
                  -30.00-30.00-30.00-30.00-30.00-30.00-30.00-30.00-30.00-30.00
                  -30.00-30.00-30.00-30.00-30.00-30.00-30.00-30.00-30.00-30.00
 18 MHz = -30.00  -30.00-30.00-30.00-30.00-30.00-30.00-30.00-30.00-30.00-30.00
                  -30.00-30.00-30.00-30.00-30.00-30.00-30.00-30.00-30.00-30.00
                  -30.00-30.00-30.00-30.00-30.00-30.00-30.00-30.00-30.00-30.00
                  -30.00-30.00-30.00-30.00-30.00-30.00-30.00-30.00-30.00-30.00
                  -30.00-30.00-30.00-30.00-30.00-30.00-30.00-30.00-30.00-30.00
                  -30.00-30.00-30.00-30.00-30.00-30.00-30.00-30.00-30.00-30.00
                  -30.00-30.00-30.00-30.00-30.00-30.00-30.00-30.00-30.00-30.00
                  -30.00-30.00-30.00-30.00-30.00-30.00-30.00-30.00-30.00-30.00
                  -30.00-30.00-30.00-30.00-30.00-30.00-30.00-30.00-30.00-30.00
 19 MHz = -30.00  -30.00-30.00-30.00-30.00-30.00-30.00-30.00-30.00-30.00-30.00
                  -30.00-30.00-30.00-30.00-30.00-30.00-30.00-30.00-30.00-30.00
                  -30.00-30.00-30.00-30.00-30.00-30.00-30.00-30.00-30.00-30.00
                  -30.00-30.00-30.00-30.00-30.00-30.00-30.00-30.00-30.00-30.00
                  -30.00-30.00-30.00-30.00-30.00-30.00-30.00-30.00-30.00-30.00
                  -30.00-30.00-30.00-30.00-30.00-30.00-30.00-30.00-30.00-30.00
                  -30.00-30.00-30.00-30.00-30.00-30.00-30.00-30.00-30.00-30.00
                  -30.00-30.00-30.00-30.00-30.00-30.00-30.00-30.00-30.00-30.00
                  -30.00-30.00-30.00-30.00-30.00-30.00-30.00-30.00-30.00-30.00
 20 MHz = -30.00  -30.00-30.00-30.00-30.00-30.00-30.00-30.00-30.00-30.00-30.00
                  -30.00-30.00-30.00-30.00-30.00-30.00-30.00-30.00-30.00-30.00
                  -30.00-30.00-30.00-30.00-30.00-30.00-30.00-30.00-30.00-30.00
                  -30.00-30.00-30.00-30.00-30.00-30.00-30.00-30.00-30.00-30.00
                  -30.00-30.00-30.00-30.00-30.00-30.00-30.00-30.00-30.00-30.00
                  -30.00-30.00-30.00-30.00-30.00-30.00-30.00-30.00-30.00-30.00
                  -30.00-30.00-30.00-30.00-30.00-30.00-30.00-30.00-30.00-30.00
                  -30.00-30.00-30.00-30.00-30.00-30.00-30.00-30.00-30.00-30.00
                  -30.00-30.00-30.00-30.00-30.00-30.00-30.00-30.00-30.00-30.00
 21 MHz = -30.00  -30.00-30.00-30.00-30.00-30.00-30.00-30.00-30.00-30.00-30.00
                  -30.00-30.00-30.00-30.00-30.00-30.00-30.00-30.00-30.00-30.00
                  -30.00-30.00-30.00-30.00-30.00-30.00-30.00-30.00-30.00-30.00
                  -30.00-30.00-30.00-30.00-30.00-30.00-30.00-30.00-30.00-30.00
                  -30.00-30.00-30.00-30.00-30.00-30.00-30.00-30.00-30.00-30.00
                  -30.00-30.00-30.00-30.00-30.00-30.00-30.00-30.00-30.00-30.00
                  -30.00-30.00-30.00-30.00-30.00-30.00-30.00-30.00-30.00-30.00
                  -30.00-30.00-30.00-30.00-30.00-30.00-30.00-30.00-30.00-30.00
                  -30.00-30.00-30.00-30.00-30.00-30.00-30.00-30.00-30.00-30.00
 22 MHz = -30.00  -30.00-30.00-30.00-30.00-30.00-30.00-30.00-30.00-30.00-30.00
                  -30.00-30.00-30.00-30.00-30.00-30.00-30.00-30.00-30.00-30.00
                  -30.00-30.00-30.00-30.00-30.00-30.00-30.00-30.00-30.00-30.00
                  -30.00-30.00-30.00-30.00-30.00-30.00-30.00-30.00-30.00-30.00
                  -30.00-30.00-30.00-30.00-30.00-30.00-30.00-30.00-30.00-30.00
                  -30.00-30.00-30.00-30.00-30.00-30.00-30.00-30.00-30.00-30.00
                  -30.00-30.00-30.00-30.00-30.00-30.00-30.00-30.00-30.00-30.00
                  -30.00-30.00-30.00-30.00-30.00-30.00-30.00-30.00-30.00-30.00
                  -30.00-30.00-30.00-30.00-30.00-30.00-30.00-30.00-30.00-30.00
 23 MHz = -30.00  -30.00-30.00-30.00-30.00-30.00-30.00-30.00-30.00-30.00-30.00
                  -30.00-30.00-30.00-30.00-30.00-30.00-30.00-30.00-30.00-30.00
                  -30.00-30.00-30.00-30.00-30.00-30.00-30.00-30.00-30.00-30.00
                  -30.00-30.00-30.00-30.00-30.00-30.00-30.00-30.00-30.00-30.00
                  -30.00-30.00-30.00-30.00-30.00-30.00-30.00-30.00-30.00-30.00
                  -30.00-30.00-30.00-30.00-30.00-30.00-30.00-30.00-30.00-30.00
                  -30.00-30.00-30.00-30.00-30.00-30.00-30.00-30.00-30.00-30.00
                  -30.00-30.00-30.00-30.00-30.00-30.00-30.00-30.00-30.00-30.00
                  -30.00-30.00-30.00-30.00-30.00-30.00-30.00-30.00-30.00-30.00
 24 MHz = -30.00  -30.00-30.00-30.00-30.00-30.00-30.00-30.00-30.00-30.00-30.00
                  -30.00-30.00-30.00-30.00-30.00-30.00-30.00-30.00-30.00-30.00
                  -30.00-30.00-30.00-30.00-30.00-30.00-30.00-30.00-30.00-30.00
                  -30.00-30.00-30.00-30.00-30.00-30.00-30.00-30.00-30.00-30.00
                  -30.00-30.00-30.00-30.00-30.00-30.00-30.00-30.00-30.00-30.00
                  -30.00-30.00-30.00-30.00-30.00-30.00-30.00-30.00-30.00-30.00
                  -30.00-30.00-30.00-30.00-30.00-30.00-30.00-30.00-30.00-30.00
                  -30.00-30.00-30.00-30.00-30.00-30.00-30.00-30.00-30.00-30.00
                  -30.00-30.00-30.00-30.00-30.00-30.00-30.00-30.00-30.00-30.00
 25 MHz = -30.00  -30.00-30.00-30.00-30.00-30.00-30.00-30.00-30.00-30.00-30.00
                  -30.00-30.00-30.00-30.00-30.00-30.00-30.00-30.00-30.00-30.00
                  -30.00-30.00-30.00-30.00-30.00-30.00-30.00-30.00-30.00-30.00
                  -30.00-30.00-30.00-30.00-30.00-30.00-30.00-30.00-30.00-30.00
                  -30.00-30.00-30.00-30.00-30.00-30.00-30.00-30.00-30.00-30.00
                  -30.00-30.00-30.00-30.00-30.00-30.00-30.00-30.00-30.00-30.00
                  -30.00-30.00-30.00-30.00-30.00-30.00-30.00-30.00-30.00-30.00
                  -30.00-30.00-30.00-30.00-30.00-30.00-30.00-30.00-30.00-30.00
                  -30.00-30.00-30.00-30.00-30.00-30.00-30.00-30.00-30.00-30.00
 26 MHz = -30.00  -30.00-30.00-30.00-30.00-30.00-30.00-30.00-30.00-30.00-30.00
                  -30.00-30.00-30.00-30.00-30.00-30.00-30.00-30.00-30.00-30.00
                  -30.00-30.00-30.00-30.00-30.00-30.00-30.00-30.00-30.00-30.00
                  -30.00-30.00-30.00-30.00-30.00-30.00-30.00-30.00-30.00-30.00
                  -30.00-30.00-30.00-30.00-30.00-30.00-30.00-30.00-30.00-30.00
                  -30.00-30.00-30.00-30.00-30.00-30.00-30.00-30.00-30.00-30.00
                  -30.00-30.00-30.00-30.00-30.00-30.00-30.00-30.00-30.00-30.00
                  -30.00-30.00-30.00-30.00-30.00-30.00-30.00-30.00-30.00-30.00
                  -30.00-30.00-30.00-30.00-30.00-30.00-30.00-30.00-30.00-30.00
 27 MHz = -30.00  -30.00-30.00-30.00-30.00-30.00-30.00-30.00-30.00-30.00-30.00
                  -30.00-30.00-30.00-30.00-30.00-30.00-30.00-30.00-30.00-30.00
                  -30.00-30.00-30.00-30.00-30.00-30.00-30.00-30.00-30.00-30.00
                  -30.00-30.00-30.00-30.00-30.00-30.00-30.00-30.00-30.00-30.00
                  -30.00-30.00-30.00-30.00-30.00-30.00-30.00-30.00-30.00-30.00
                  -30.00-30.00-30.00-30.00-30.00-30.00-30.00-30.00-30.00-30.00
                  -30.00-30.00-30.00-30.00-30.00-30.00-30.00-30.00-30.00-30.00
                  -30.00-30.00-30.00-30.00-30.00-30.00-30.00-30.00-30.00-30.00
                  -30.00-30.00-30.00-30.00-30.00-30.00-30.00-30.00-30.00-30.00
 28 MHz = -30.00  -30.00-30.00-30.00-30.00-30.00-30.00-30.00-30.00-30.00-30.00
                  -30.00-30.00-30.00-30.00-30.00-30.00-30.00-30.00-30.00-30.00
                  -30.00-30.00-30.00-30.00-30.00-30.00-30.00-30.00-30.00-30.00
                  -30.00-30.00-30.00-30.00-30.00-30.00-30.00-30.00-30.00-30.00
                  -30.00-30.00-30.00-30.00-30.00-30.00-30.00-30.00-30.00-30.00
                  -30.00-30.00-30.00-30.00-30.00-30.00-30.00-30.00-30.00-30.00
                  -30.00-30.00-30.00-30.00-30.00-30.00-30.00-30.00-30.00-30.00
                  -30.00-30.00-30.00-30.00-30.00-30.00-30.00-30.00-30.00-30.00
                  -30.00-30.00-30.00-30.00-30.00-30.00-30.00-30.00-30.00-30.00
 29 MHz = -30.00  -30.00-30.00-30.00-30.00-30.00-30.00-30.00-30.00-30.00-30.00
                  -30.00-30.00-30.00-30.00-30.00-30.00-30.00-30.00-30.00-30.00
                  -30.00-30.00-30.00-30.00-30.00-30.00-30.00-30.00-30.00-30.00
                  -30.00-30.00-30.00-30.00-30.00-30.00-30.00-30.00-30.00-30.00
                  -30.00-30.00-30.00-30.00-30.00-30.00-30.00-30.00-30.00-30.00
                  -30.00-30.00-30.00-30.00-30.00-30.00-30.00-30.00-30.00-30.00
                  -30.00-30.00-30.00-30.00-30.00-30.00-30.00-30.00-30.00-30.00
                  -30.00-30.00-30.00-30.00-30.00-30.00-30.00-30.00-30.00-30.00
                  -30.00-30.00-30.00-30.00-30.00-30.00-30.00-30.00-30.00-30.00
 30 MHz = -30.00  -30.00-30.00-30.00-30.00-30.00-30.00-30.00-30.00-30.00-30.00
                  -30.00-30.00-30.00-30.00-30.00-30.00-30.00-30.00-30.00-30.00
                  -30.00-30.00-30.00-30.00-30.00-30.00-30.00-30.00-30.00-30.00
                  -30.00-30.00-30.00-30.00-30.00-30.00-30.00-30.00-30.00-30.00
                  -30.00-30.00-30.00-30.00-30.00-30.00-30.00-30.00-30.00-30.00
                  -30.00-30.00-30.00-30.00-30.00-30.00-30.00-30.00-30.00-30.00
                  -30.00-30.00-30.00-30.00-30.00-30.00-30.00-30.00-30.00-30.00
                  -30.00-30.00-30.00-30.00-30.00-30.00-30.00-30.00-30.00-30.00
                  -30.00-30.00-30.00-30.00-30.00-30.00-30.00-30.00-30.00-30.00
